# Output of JWST_backgrounds version 1.1.2
# background cache version 1.0

# for RA=261.6833333, DEC=-73.33222222 On calendar day 169
# Columns: 
# - Wavelength [micron] 
# - Total background (MJy/sr)
# - In-field zodiacal light (MJy/sr)
# - In-field galactic light (MJy/sr)
# - Stray light (MJy/sr)
# - Thermal self-emission (MJy/sr)
0.500000    0.1763    0.1454    0.0040    0.0269    0.0000
0.600000    0.2502    0.1922    0.0057    0.0523    0.0000
0.700000    0.2778    0.2158    0.0067    0.0553    0.0000
0.800000    0.2888    0.2228    0.0078    0.0582    0.0000
0.900000    0.2864    0.2188    0.0082    0.0594    0.0000
1.000000    0.3165    0.2084    0.0086    0.0995    0.0000
1.100000    0.3001    0.1947    0.0087    0.0967    0.0000
1.200000    0.2822    0.1795    0.0089    0.0938    0.0000
1.300000    0.2681    0.1675    0.0091    0.0915    0.0000
1.400000    0.2577    0.1586    0.0095    0.0896    0.0000
1.500000    0.2474    0.1499    0.0098    0.0877    0.0000
1.600000    0.2374    0.1414    0.0101    0.0859    0.0000
1.700000    0.2278    0.1333    0.0103    0.0842    0.0000
1.800000    0.2194    0.1257    0.0106    0.0832    0.0000
1.900000    0.2109    0.1186    0.0107    0.0816    0.0000
2.000000    0.2030    0.1120    0.0109    0.0801    0.0000
2.100000    0.1966    0.1058    0.0110    0.0798    0.0000
2.200000    0.1907    0.1001    0.0111    0.0796    0.0000
2.300000    0.1843    0.0936    0.0114    0.0793    0.0000
2.400000    0.1785    0.0877    0.0117    0.0792    0.0000
2.500000    0.1732    0.0822    0.0119    0.0791    0.0000
2.600000    0.1683    0.0771    0.0121    0.0790    0.0000
2.700000    0.1638    0.0725    0.0124    0.0790    0.0000
2.800000    0.1598    0.0682    0.0126    0.0790    0.0000
2.900000    0.1348    0.0642    0.0128    0.0577    0.0000
3.000000    0.1313    0.0606    0.0130    0.0577    0.0000
3.100000    0.1272    0.0572    0.0132    0.0568    0.0000
3.200000    0.1263    0.0540    0.0152    0.0570    0.0000
3.300000    0.1349    0.0511    0.0229    0.0608    0.0001
3.400000    0.1169    0.0484    0.0140    0.0544    0.0001
3.500000    0.1263    0.0572    0.0139    0.0550    0.0002
3.700000    0.1331    0.0636    0.0144    0.0548    0.0003
4.000000    0.1582    0.0862    0.0152    0.0559    0.0009
4.250000    0.1839    0.1212    0.0157    0.0450    0.0019
4.500000    0.2443    0.1747    0.0164    0.0497    0.0035
4.750000    0.3285    0.2490    0.0171    0.0562    0.0061
5.000000    0.4380    0.3454    0.0181    0.0646    0.0099
5.100000    0.4997    0.3988    0.0187    0.0704    0.0118
5.200000    0.5681    0.4583    0.0189    0.0768    0.0140
5.300000    0.6556    0.5243    0.0271    0.0876    0.0165
5.400000    0.7299    0.5970    0.0213    0.0923    0.0194
5.500000    0.8259    0.6765    0.0247    0.1021    0.0225
5.700000    1.0657    0.8569    0.0471    0.1318    0.0299
5.900000    1.3054    1.0667    0.0467    0.1532    0.0388
6.100000    1.6596    1.3063    0.1062    0.1976    0.0495
6.300000    2.1631    1.5759    0.2341    0.2909    0.0621
6.500000    2.3254    1.8751    0.1133    0.2601    0.0769
6.700000    2.6854    2.2029    0.1010    0.2876    0.0940
6.900000    3.1215    2.5580    0.1171    0.3328    0.1136
7.100000    3.5836    2.9389    0.1296    0.3791    0.1360
7.300000    4.1376    3.3437    0.1824    0.4497    0.1617
7.500000    4.8204    3.7702    0.3004    0.5589    0.1909
7.700000    5.4624    4.2160    0.3746    0.6475    0.2243
7.900000    5.9087    4.6788    0.3074    0.6602    0.2623
8.100000    6.3402    5.1560    0.2174    0.6611    0.3057
8.300000    6.8977    5.6451    0.1959    0.7014    0.3553
8.500000    7.5396    6.1436    0.2168    0.7670    0.4121
8.700000    8.1430    6.6490    0.2028    0.8138    0.4774
8.900000    8.6649    7.1590    0.1279    0.8257    0.5523
9.100000    9.2873    7.6711    0.1079    0.8696    0.6386
9.300000    9.9407    8.1833    0.0990    0.9204    0.7379
9.500000    10.6170    8.6935    0.0962    0.9750    0.8522
9.700000    11.3138    9.1998    0.1045    1.0258    0.9837
9.900000    12.0299    9.7003    0.1096    1.0850    1.1350
10.100000    12.7412    10.1936    0.1049    1.1347    1.3080
10.300000    13.4671    10.6780    0.1010    1.1811    1.5070
10.500000    14.2394    11.1522    0.1155    1.2377    1.7340
10.700000    15.0258    11.6151    0.1267    1.2910    1.9930
10.900000    15.8507    12.0657    0.1485    1.3495    2.2870
11.100000    16.8086    12.5030    0.2370    1.4476    2.6210
11.300000    17.8608    12.9262    0.3669    1.5697    2.9980
11.500000    18.6480    13.3346    0.3137    1.5777    3.4220
11.700000    19.3764    13.7277    0.2017    1.5479    3.8990
11.900000    20.3074    14.1052    0.1907    1.5786    4.4330
12.100000    21.3658    14.5195    0.1994    1.6189    5.0280
12.300000    22.5498    14.9750    0.2117    1.6720    5.6910
12.500000    23.7894    15.4201    0.2211    1.7222    6.4260
12.700000    25.0907    15.8543    0.2284    1.7701    7.2380
12.900000    26.4191    16.2773    0.2081    1.7998    8.1340
13.100000    27.7964    16.6888    0.1714    1.8182    9.1180
13.300000    29.2898    17.0887    0.1539    1.8472    10.2000
13.500000    30.8972    17.4768    0.1543    1.8861    11.3800
13.700000    32.5894    17.8530    0.1472    1.9192    12.6700
13.900000    34.3686    18.2173    0.1341    1.9473    14.0700
14.100000    36.2886    18.5695    0.1358    1.9833    15.6000
14.300000    38.3047    18.9099    0.1308    2.0140    17.2500
14.500000    40.4458    19.2383    0.1247    2.0428    19.0400
14.700000    42.7094    19.5548    0.1158    2.0688    20.9700
14.900000    45.1195    19.8596    0.1128    2.0971    23.0500
15.100000    47.6793    20.1528    0.1113    2.1252    25.2900
15.300000    50.3912    20.4345    0.1065    2.1502    27.7000
15.500000    53.3014    20.7048    0.1208    2.1858    30.2900
16.500000    70.5871    21.8929    0.1272    2.3070    46.2600
17.500000    93.7640    22.8276    0.1335    2.4029    68.4000
18.500000    124.8335    23.5376    0.1396    2.4763    98.6800
19.500000    166.4281    24.0521    0.1457    2.5302    139.7000
20.500000    222.0183    24.3989    0.1520    2.5675    194.9000
21.500000    295.9522    24.6034    0.1582    2.5906    268.6000
22.500000    393.4548    24.6886    0.1644    2.6018    366.0000
23.500000    520.6481    24.6744    0.1706    2.6031    493.2000
24.500000    684.5512    24.5781    0.1768    2.5962    657.2000
25.500000    892.6472    24.2003    0.1849    2.5620    865.7000
26.500000    1153.2624    23.5647    0.1949    2.5028    1127.0000
27.500000    1475.5482    22.9021    0.2051    2.4410    1450.0000
28.500000    1867.8159    22.2227    0.2156    2.3776    1843.0000
29.500000    2339.0747    21.5349    0.2263    2.3135    2315.0000
30.500000    2897.3318    20.8454    0.2371    2.2493    2874.0000
31.000000    3147.9616    20.5016    0.2426    2.2174    3125.0000
